?? ?????? 
    ALD???????????????????
???????????? 100???????step 
coverage???…???????????????
???? [11]???? ALD??????? N??
TiO2?????????????????????
????????? ALD???????? N??
?????? TiO2???????????????
?????????????????? TiO2???
???????????????????????
??? 
?? ???? 
ALD TiO2 ?????????????? J. 
Aarik?? [12] ? titanium isopropoxide? H2O??
????? Pore?? [13] ? titanium tetramethoxide
?H2O???????Lee ???TiO2???Si(100)
?????????? 254 nm ? UV ?????
alkylsiloxane?????? TiO2 ? Si ????
alkylsiloxane ?????????????????
SiO2??? alkylsiloxane??????Pore????
???? TiO2?????????????????
?? 250℃?????TiO2???????????
???????? sources????????????
???????????????????????
sources ?? TiCl4???????????????
? TiCl4 ?????? TiO2 ???????? 
[14-16]?TiO2 ????????????????
100-600???? TiO2?????????????
??????? TiO2???ALD??? TiO2???
??????????????????? Pore?? 
[17] ? TiCl4?NH3? H2O???????? ALD?
?? TiO2????????? 
?? ???? 
    ??????????????????
?????? TiO2??? n+-Si???? 0.001 ~ 0.005 
Ω-cm????????????? 99.3%????
(NH3:H2O=29:71)????????????????
?Ar??? 99.999%????????????pulse?
??????????????purge???????
???? TiCl4?vacuum?Ar????vacuum?Ar ?
????? 1?1?1?1?2?1 ?s????????
??????200??500????????? N??
TiO2???????????????? 
???????????????? 632.8 nm?
MARY-102 ????????????????
λ=1.5418 Å ? RIGAKU D/MAX 3.V X ????
?XRD??????????? Hitachi S-4100??
???????Scanning Electron Microscope?SEM?
??????????????? ULVAC-PHI XPS
???X-ray spot size? 100 µm??? 25 W????
? 45o?????????? Ar ?????? 0.4 
min???? 2.2 nm? 
?????????????Autolab PGSTAT12
????????????????Ag/AgCl???
???TiO2 ??????????? 1 M ???
?HClO4??????????????? 1*3 cm2?
??????????????????????? 
?? ????? 
? 1(a)????? 25oC??????? 1000??
????????? TiO2??? XRD??????
?? 200oC?????????????300? 500oC
? anatase???300oC?(101)??????????
??????????600oC ??? rutile ????
1(b)???????? 5oC ??? TiO2??? XRD
???????????? TiO2?????????
????? 25oC?? rutile?????? 500oC???
?? 600oC? TiON? TiN?????????? 5oC
? NH3? H2O???????? 25oC????TiCl4
? NH3???????????????? TiON?
TiN?????? 
 
20 30 40 50 60 70 80
a-anatase
r(211) r(301)
a(105) a(204)
r(200)
a(004) a(200)
In
te
ns
ity
 (a
rb
. u
ni
ts
)
2θ (deg.)
500oC
600oC
400oC
300oC
200oC
r(220)r(210)
a(101)
r(110)
r-rutile
(a)
 
 
 2
410 405 400 395
 
N1S
?-N
?-N
600oC
500oC
400oC
300oC
200oC
In
te
ns
ity
 (a
rb
. u
ni
ts
)
Binding Energy (eV)  
? 4 ???? 25oC???????????? N1s 
XPS??? 
410 405 400 395
 
 
N1S
400oC
300oC
200oC
?-N ?-N
In
te
ns
ity
 (a
rb
. u
ni
ts
)
Binding Energy (eV)  
? 5 ???? 5oC???????????? N1s 
XPS??? 
 
 
? 6????? 25oC??? TiO2??????
??????????? TiO2??????????
?????????? TiO2???????????
???????? 25oC????? 200oC?????
???????????? 200oC????????
?????????????300~500oC ?????
? anatase????? 600oC?????? rutile??
????? anatase? rutile?????????? 385 
nm? 412 nm????????? 300~500oC???
?????????????? 520 nm?600oC??
??????????? 545 nm?? XPS????
? 600oC????????? β-N????????
?????? 
? 7????? 5oC???TiO2???????
??????????????? 25oC ?????
?????????????????????? 5oC
? β-N ?????????? 600oC ???? TiON
? TiN????????? 
 
200 300 400 500 600 700 800
0.0
0.2
0.4 200 300 400 500 600 700 800
0.0
0.1 200 300 400 500 600 700 800
0.0
0.1 200 300 400 500 600 700 800
0.0
0.1 200 300 400 500 600 700 800
0.0
0.1 200 300 400 500 600 700 800
0.0
0.1
600oC
500oC
400oC
300oC
200oC
Wavelength (nm)
TiO2
Ph
ot
oc
ur
re
nt
 (?
A
/c
m
2 )
 
? 6 ???? 25oC??????? 1000?????
?? TiO2???????????? 100W ?
???? 1 V? 
 
200 300 400 500 600 700 800
0.0
0.1
200 300 400 500 600 700 800
0.0
0.1
200 300 400 500 600 700 800
0.0
0.1
200 300 400 500 600 700 800
0.0
0.1
200 300 400 500 600 700 800
0.0
0.1
600oC
500oC
400oC
300oC
200oC
Wavelength (nm)
Ph
ot
oc
ur
re
nt
 (?
A
/c
m
2 )
  
? 7 ???? 5oC??????? 1000 ?????
?? TiO2???????????? 100W?
???? 1 V? 
 
 
? 8????? 25oC???????? 1000?
?? 3000 ??TiO2??????????????
??????????????? 1000 ?????
???????????????? 3000 ????
??????????? 1000 ?????????
? 3??????????????????????
???????????????????????
???????????????????????
?????? 500oC??????????????
??????????? 560 nm? 
 
 4
